 C22H33O2Cl9 Density=1.508 Thickness=0.179 microns
 Photon Energy (eV), Transmission
    10.000      0.34442E-02
    11.000      0.23519E-03
    12.000      0.15575E-04
    13.000      0.22528E-05
    14.000      0.52577E-06
    15.000      0.19733E-06
    16.000      0.11955E-06
    17.000      0.41686E-08
    18.000      0.66861E-08
    19.000      0.10836E-07
    20.000      0.23250E-07
    21.000      0.69780E-07
    22.000      0.20115E-06
    23.000      0.52582E-06
    24.000      0.19518E-05
    25.000      0.62788E-05
    26.000      0.21207E-04
    27.000      0.63343E-04
    28.000      0.16268E-03
    29.000      0.39018E-03
    30.000      0.89518E-03
    31.000      0.18143E-02
    32.000      0.34983E-02
    33.000      0.67663E-02
    34.000      0.11485E-01
    35.000      0.17644E-01
    36.000      0.24993E-01
    37.000      0.33703E-01
    38.000      0.44264E-01
    39.000      0.56367E-01
    40.000      0.69162E-01
    41.000      0.82565E-01
    42.000      0.94340E-01
    43.000      0.10664    
    44.000      0.11923    
    45.000      0.13106    
    46.000      0.14163    
    47.000      0.15166    
    48.000      0.16139    
    49.000      0.17110    
    50.000      0.18097    
    51.000      0.19065    
    52.000      0.20039    
    53.000      0.21007    
    54.000      0.21875    
    55.000      0.22660    
    56.000      0.23421    
    57.000      0.24158    
    58.000      0.24869    
    59.000      0.25555    
    60.000      0.26238    
    61.000      0.26967    
    62.000      0.27779    
    63.000      0.28600    
    64.000      0.29398    
    65.000      0.30172    
    66.000      0.30920    
    67.000      0.31644    
    68.000      0.32344    
    69.000      0.33090    
    70.000      0.33916    
    71.000      0.34724    
    72.000      0.35516    
    73.000      0.36291    
    74.000      0.37050    
    75.000      0.37793    
    76.000      0.38519    
    77.000      0.39241    
    78.000      0.39979    
    79.000      0.40752    
    80.000      0.41511    
    81.000      0.42256    
    82.000      0.42987    
    83.000      0.43705    
    84.000      0.44410    
    85.000      0.45102    
    86.000      0.45780    
    87.000      0.46446    
    88.000      0.47113    
    89.000      0.47775    
    90.000      0.48429    
    91.000      0.49072    
    92.000      0.49703    
    93.000      0.50322    
    94.000      0.50930    
    95.000      0.51527    
    96.000      0.52112    
    97.000      0.52687    
    98.000      0.53253    
    99.000      0.53813    
    100.00      0.54375    
    101.00      0.54929    
    102.00      0.55473    
    103.00      0.56007    
    104.00      0.56531    
    105.00      0.57075    
    106.00      0.57615    
    107.00      0.58156    
    108.00      0.58688    
    109.00      0.59210    
    110.00      0.59723    
    111.00      0.60227    
    112.00      0.60721    
    113.00      0.61207    
    114.00      0.61684    
    115.00      0.62152    
    116.00      0.62612    
    117.00      0.63064    
    118.00      0.63508    
    119.00      0.63945    
    120.00      0.64373    
    121.00      0.64794    
    122.00      0.65208    
    123.00      0.65614    
    124.00      0.66014    
    125.00      0.66407    
    126.00      0.66792    
    127.00      0.67172    
    128.00      0.67545    
    129.00      0.67911    
    130.00      0.68272    
    131.00      0.68628    
    132.00      0.68980    
    133.00      0.69337    
    134.00      0.69695    
    135.00      0.70046    
    136.00      0.70390    
    137.00      0.70728    
    138.00      0.71061    
    139.00      0.71388    
    140.00      0.71710    
    141.00      0.72026    
    142.00      0.72337    
    143.00      0.72642    
    144.00      0.72943    
    145.00      0.73239    
    146.00      0.73530    
    147.00      0.73816    
    148.00      0.74098    
    149.00      0.74375    
    150.00      0.74648    
    151.00      0.74916    
    152.00      0.75180    
    153.00      0.75440    
    154.00      0.75696    
    155.00      0.75947    
    156.00      0.76204    
    157.00      0.76463    
    158.00      0.76719    
    159.00      0.76972    
    160.00      0.77220    
    161.00      0.77465    
    162.00      0.77706    
    163.00      0.77943    
    164.00      0.78177    
    165.00      0.78406    
    166.00      0.78633    
    167.00      0.78856    
    168.00      0.79076    
    169.00      0.79292    
    170.00      0.79505    
    171.00      0.79715    
    172.00      0.79922    
    173.00      0.80125    
    174.00      0.80326    
    175.00      0.80524    
    176.00      0.80718    
    177.00      0.80910    
    178.00      0.81100    
    179.00      0.81286    
    180.00      0.81471    
    181.00      0.81654    
    182.00      0.81835    
    183.00      0.82017    
    184.00      0.82198    
    185.00      0.82377    
    186.00      0.82561    
    187.00      0.82748    
    188.00      0.82932    
    189.00      0.83114    
    190.00      0.83293    
    191.00      0.83469    
    192.00      0.83643    
    193.00      0.83814    
    194.00      0.83982    
    195.00      0.84148    
    196.00      0.84311    
    197.00      0.84472    
    198.00      0.84630    
    199.00      0.84786    
    200.00      0.70889    
    201.00      0.40617    
    202.00      0.40624    
    203.00      0.40630    
    204.00      0.40636    
    205.00      0.40641    
    206.00      0.40646    
    207.00      0.40650    
    208.00      0.40653    
    209.00      0.40656    
    210.00      0.40659    
    211.00      0.40660    
    212.00      0.40662    
    213.00      0.40663    
    214.00      0.40663    
    215.00      0.40727    
    216.00      0.40811    
    217.00      0.40894    
    218.00      0.41001    
    219.00      0.41169    
    220.00      0.41336    
    221.00      0.41501    
    222.00      0.41665    
    223.00      0.41828    
    224.00      0.41990    
    225.00      0.42151    
    226.00      0.42311    
    227.00      0.42470    
    228.00      0.42628    
    229.00      0.42785    
    230.00      0.42941    
    231.00      0.43097    
    232.00      0.43251    
    233.00      0.43405    
    234.00      0.43557    
    235.00      0.43709    
    236.00      0.43860    
    237.00      0.44010    
    238.00      0.44159    
    239.00      0.44307    
    240.00      0.44454    
    241.00      0.44600    
    242.00      0.44744    
    243.00      0.44889    
    244.00      0.45032    
    245.00      0.45176    
    246.00      0.45319    
    247.00      0.45460    
    248.00      0.45603    
    249.00      0.45747    
    250.00      0.45890    
    251.00      0.46032    
    252.00      0.46173    
    253.00      0.46314    
    254.00      0.46453    
    255.00      0.46592    
    256.00      0.46730    
    257.00      0.46867    
    258.00      0.47003    
    259.00      0.47139    
    260.00      0.47274    
    261.00      0.47408    
    262.00      0.47541    
    263.00      0.47673    
    264.00      0.47805    
    265.00      0.47936    
    266.00      0.48066    
    267.00      0.48196    
    268.00      0.48325    
    269.00      0.48453    
    270.00      0.48580    
    271.00      0.48707    
    272.00      0.48833    
    273.00      0.48973    
    274.00      0.49130    
    275.00      0.49286    
    276.00      0.49442    
    277.00      0.49598    
    278.00      0.49793    
    279.00      0.49986    
    280.00      0.50179    
    281.00      0.50370    
    282.00      0.50574    
    283.00      0.50789    
    284.00      0.51002    
    285.00      0.29697    
    286.00      0.29943    
    287.00      0.30191    
    288.00      0.30438    
    289.00      0.30684    
    290.00      0.30930    
    291.00      0.31175    
    292.00      0.31419    
    293.00      0.31663    
    294.00      0.31907    
    295.00      0.32150    
    296.00      0.32392    
    297.00      0.32633    
    298.00      0.32874    
    299.00      0.33114    
    300.00      0.33353    
    301.00      0.33592    
    302.00      0.33830    
    303.00      0.34068    
    304.00      0.34305    
    305.00      0.34541    
    306.00      0.34776    
    307.00      0.35011    
    308.00      0.35245    
    309.00      0.35478    
    310.00      0.35710    
    311.00      0.35942    
    312.00      0.36173    
    313.00      0.36403    
    314.00      0.36633    
    315.00      0.36862    
    316.00      0.37090    
    317.00      0.37317    
    318.00      0.37544    
    319.00      0.37770    
    320.00      0.37995    
    321.00      0.38219    
    322.00      0.38442    
    323.00      0.38665    
    324.00      0.38887    
    325.00      0.39108    
    326.00      0.39329    
    327.00      0.39548    
    328.00      0.39767    
    329.00      0.39985    
    330.00      0.40202    
    331.00      0.40418    
    332.00      0.40634    
    333.00      0.40849    
    334.00      0.41063    
    335.00      0.41276    
    336.00      0.41489    
    337.00      0.41700    
    338.00      0.41911    
    339.00      0.42121    
    340.00      0.42330    
    341.00      0.42539    
    342.00      0.42747    
    343.00      0.42953    
    344.00      0.43159    
    345.00      0.43365    
    346.00      0.43569    
    347.00      0.43773    
    348.00      0.43975    
    349.00      0.44178    
    350.00      0.44379    
    351.00      0.44579    
    352.00      0.44779    
    353.00      0.44978    
    354.00      0.45176    
    355.00      0.45373    
    356.00      0.45569    
    357.00      0.45765    
    358.00      0.45960    
    359.00      0.46154    
    360.00      0.46347    
    361.00      0.46539    
    362.00      0.46731    
    363.00      0.46922    
    364.00      0.47112    
    365.00      0.47301    
    366.00      0.47490    
    367.00      0.47677    
    368.00      0.47864    
    369.00      0.48051    
    370.00      0.48236    
    371.00      0.48421    
    372.00      0.48604    
    373.00      0.48787    
    374.00      0.48970    
    375.00      0.49151    
    376.00      0.49334    
    377.00      0.49520    
    378.00      0.49706    
    379.00      0.49890    
    380.00      0.50074    
    381.00      0.50257    
    382.00      0.50443    
    383.00      0.50636    
    384.00      0.50829    
    385.00      0.51020    
    386.00      0.51211    
    387.00      0.51401    
    388.00      0.51592    
    389.00      0.51798    
    390.00      0.52003    
    391.00      0.52207    
    392.00      0.52410    
    393.00      0.52613    
    394.00      0.52814    
    395.00      0.53012    
    396.00      0.53209    
    397.00      0.53405    
    398.00      0.53600    
    399.00      0.53794    
    400.00      0.53987    
    401.00      0.54179    
    402.00      0.54370    
    403.00      0.54559    
    404.00      0.54747    
    405.00      0.54935    
    406.00      0.55122    
    407.00      0.55308    
    408.00      0.55493    
    409.00      0.55677    
    410.00      0.55860    
    411.00      0.56042    
    412.00      0.56223    
    413.00      0.56404    
    414.00      0.56585    
    415.00      0.56766    
    416.00      0.56946    
    417.00      0.57126    
    418.00      0.57304    
    419.00      0.57482    
    420.00      0.57659    
    421.00      0.57835    
    422.00      0.58012    
    423.00      0.58187    
    424.00      0.58361    
    425.00      0.58535    
    426.00      0.58708    
    427.00      0.58879    
    428.00      0.59052    
    429.00      0.59224    
    430.00      0.59395    
    431.00      0.59566    
    432.00      0.59735    
    433.00      0.59904    
    434.00      0.60072    
    435.00      0.60239    
    436.00      0.60405    
    437.00      0.60571    
    438.00      0.60735    
    439.00      0.60899    
    440.00      0.61062    
    441.00      0.61224    
    442.00      0.61385    
    443.00      0.61546    
    444.00      0.61706    
    445.00      0.61865    
    446.00      0.62023    
    447.00      0.62180    
    448.00      0.62337    
    449.00      0.62493    
    450.00      0.62649    
    451.00      0.62804    
    452.00      0.62958    
    453.00      0.63111    
    454.00      0.63263    
    455.00      0.63415    
    456.00      0.63566    
    457.00      0.63716    
    458.00      0.63866    
    459.00      0.64015    
    460.00      0.64163    
    461.00      0.64310    
    462.00      0.64456    
    463.00      0.64602    
    464.00      0.64747    
    465.00      0.64892    
    466.00      0.65036    
    467.00      0.65179    
    468.00      0.65321    
    469.00      0.65462    
    470.00      0.65603    
    471.00      0.65743    
    472.00      0.65883    
    473.00      0.66021    
    474.00      0.66159    
    475.00      0.66297    
    476.00      0.66433    
    477.00      0.66569    
    478.00      0.66704    
    479.00      0.66840    
    480.00      0.66975    
    481.00      0.67109    
    482.00      0.67243    
    483.00      0.67376    
    484.00      0.67508    
    485.00      0.67640    
    486.00      0.67771    
    487.00      0.67903    
    488.00      0.68034    
    489.00      0.68165    
    490.00      0.68294    
    491.00      0.68423    
    492.00      0.68552    
    493.00      0.68680    
    494.00      0.68807    
    495.00      0.68933    
    496.00      0.69059    
    497.00      0.69184    
    498.00      0.69309    
    499.00      0.69433    
    500.00      0.69556    
    501.00      0.69679    
    502.00      0.69801    
    503.00      0.69922    
    504.00      0.70044    
    505.00      0.70164    
    506.00      0.70284    
    507.00      0.70403    
    508.00      0.70522    
    509.00      0.70640    
    510.00      0.70757    
    511.00      0.70874    
    512.00      0.70991    
    513.00      0.71107    
    514.00      0.71222    
    515.00      0.71337    
    516.00      0.71451    
    517.00      0.71564    
    518.00      0.71677    
    519.00      0.71790    
    520.00      0.71902    
    521.00      0.72014    
    522.00      0.72125    
    523.00      0.72235    
    524.00      0.72345    
    525.00      0.72454    
    526.00      0.72563    
    527.00      0.72671    
    528.00      0.72779    
    529.00      0.72886    
    530.00      0.72993    
    531.00      0.73099    
    532.00      0.73204    
    533.00      0.73309    
    534.00      0.73414    
    535.00      0.73518    
    536.00      0.73621    
    537.00      0.73725    
    538.00      0.73827    
    539.00      0.73929    
    540.00      0.74031    
    541.00      0.74132    
    542.00      0.74232    
    543.00      0.74332    
    544.00      0.72458    
    545.00      0.72564    
    546.00      0.72669    
    547.00      0.72773    
    548.00      0.72877    
    549.00      0.72981    
    550.00      0.73084    
    551.00      0.73186    
    552.00      0.73288    
    553.00      0.73390    
    554.00      0.73490    
    555.00      0.73591    
    556.00      0.73691    
    557.00      0.73790    
    558.00      0.73889    
    559.00      0.73988    
    560.00      0.74086    
    561.00      0.74184    
    562.00      0.74281    
    563.00      0.74377    
    564.00      0.74473    
    565.00      0.74569    
    566.00      0.74664    
    567.00      0.74759    
    568.00      0.74853    
    569.00      0.74947    
    570.00      0.75041    
    571.00      0.75134    
    572.00      0.75227    
    573.00      0.75319    
    574.00      0.75410    
    575.00      0.75502    
    576.00      0.75593    
    577.00      0.75683    
    578.00      0.75773    
    579.00      0.75863    
    580.00      0.75952    
    581.00      0.76040    
    582.00      0.76129    
    583.00      0.76217    
    584.00      0.76304    
    585.00      0.76391    
    586.00      0.76477    
    587.00      0.76564    
    588.00      0.76649    
    589.00      0.76735    
    590.00      0.76820    
    591.00      0.76904    
    592.00      0.76988    
    593.00      0.77072    
    594.00      0.77155    
    595.00      0.77238    
    596.00      0.77321    
    597.00      0.77403    
    598.00      0.77485    
    599.00      0.77566    
    600.00      0.77647    
    601.00      0.77728    
    602.00      0.77809    
    603.00      0.77889    
    604.00      0.77968    
    605.00      0.78048    
    606.00      0.78126    
    607.00      0.78205    
    608.00      0.78283    
    609.00      0.78361    
    610.00      0.78438    
    611.00      0.78515    
    612.00      0.78592    
    613.00      0.78668    
    614.00      0.78744    
    615.00      0.78820    
    616.00      0.78895    
    617.00      0.78970    
    618.00      0.79045    
    619.00      0.79119    
    620.00      0.79193    
    621.00      0.79267    
    622.00      0.79340    
    623.00      0.79413    
    624.00      0.79485    
    625.00      0.79558    
    626.00      0.79629    
    627.00      0.79701    
    628.00      0.79772    
    629.00      0.79843    
    630.00      0.79914    
    631.00      0.79985    
    632.00      0.80055    
    633.00      0.80125    
    634.00      0.80195    
    635.00      0.80264    
    636.00      0.80333    
    637.00      0.80402    
    638.00      0.80470    
    639.00      0.80538    
    640.00      0.80606    
    641.00      0.80674    
    642.00      0.80741    
    643.00      0.80808    
    644.00      0.80875    
    645.00      0.80941    
    646.00      0.81007    
    647.00      0.81073    
    648.00      0.81138    
    649.00      0.81204    
    650.00      0.81269    
    651.00      0.81334    
    652.00      0.81398    
    653.00      0.81462    
    654.00      0.81526    
    655.00      0.81590    
    656.00      0.81653    
    657.00      0.81716    
    658.00      0.81779    
    659.00      0.81841    
    660.00      0.81903    
    661.00      0.81966    
    662.00      0.82027    
    663.00      0.82089    
    664.00      0.82150    
    665.00      0.82211    
    666.00      0.82272    
    667.00      0.82332    
    668.00      0.82392    
    669.00      0.82452    
    670.00      0.82511    
    671.00      0.82569    
    672.00      0.82627    
    673.00      0.82685    
    674.00      0.82743    
    675.00      0.82800    
    676.00      0.82858    
    677.00      0.82914    
    678.00      0.82971    
    679.00      0.83027    
    680.00      0.83084    
    681.00      0.83139    
    682.00      0.83194    
    683.00      0.83248    
    684.00      0.83303    
    685.00      0.83357    
    686.00      0.83411    
    687.00      0.83465    
    688.00      0.83518    
    689.00      0.83571    
    690.00      0.83624    
    691.00      0.83677    
    692.00      0.83729    
    693.00      0.83782    
    694.00      0.83834    
    695.00      0.83886    
    696.00      0.83937    
    697.00      0.83989    
    698.00      0.84040    
    699.00      0.84091    
    700.00      0.84141    
    701.00      0.84192    
    702.00      0.84242    
    703.00      0.84293    
    704.00      0.84345    
    705.00      0.84396    
    706.00      0.84447    
    707.00      0.84498    
    708.00      0.84549    
    709.00      0.84600    
    710.00      0.84650    
    711.00      0.84700    
    712.00      0.84750    
    713.00      0.84799    
    714.00      0.84849    
    715.00      0.84900    
    716.00      0.84950    
    717.00      0.85000    
    718.00      0.85049    
    719.00      0.85099    
    720.00      0.85148    
